# hvsrpy output version 0.5.2
# File Name (),NA
# Method (),geometric-mean
# Azimuth (),0
# Window Length (s),1200.0
# Total Number of Windows (),72
# Frequency Domain Window Rejection Performed (),True
# Lower frequency limit for peaks (Hz),0.1
# Upper frequency limit for peaks (Hz),5.0
# Number of Standard Deviations Used for Rejection () [n],2
# Number of Accepted Windows (),58
# Number of Rejected Windows (),14
# Distribution of f0 (),lognormal
# Median f0 (Hz) [LMf0],1.277
# Lognormal standard deviation f0 () [SigmaLNf0],0.1939
# 68 % Confidence Interval f0 (Hz),1.0519,to,1.5502
# Median T0 (s) [LMT0],0.7831
# Lognormal standard deviation T0 () [SigmaLNT0],0.1939
# 68 % Confidence Interval T0 (s),0.6451,to,0.9507
# Median Curve Distribution (),lognormal
# Median Curve Peak Frequency (Hz) [f0mc],1.2765
# Median Curve Peak Amplitude (),2.3274
# Frequency (Hz),Median Curve,1 STD Below Median Curve,1 STD Above Median Curve
0.05,2.203,1.0603,4.5774
0.0512,2.272,1.1029,4.6805
0.0524,2.3539,1.1616,4.7702
0.0536,2.4507,1.2411,4.8391
0.0548,2.5558,1.3357,4.8903
0.0561,2.6564,1.429,4.9378
0.0574,2.741,1.5066,4.9867
0.0588,2.8008,1.5706,4.9946
0.0602,2.8305,1.6297,4.9162
0.0616,2.8311,1.6776,4.7778
0.063,2.8085,1.6991,4.6423
0.0645,2.7648,1.6879,4.5289
0.066,2.7002,1.653,4.4107
0.0675,2.6208,1.6076,4.2724
0.0691,2.5309,1.5565,4.1154
0.0707,2.4254,1.4988,3.9249
0.0724,2.3014,1.4369,3.6862
0.0741,2.168,1.3733,3.4226
0.0758,2.0403,1.3108,3.1758
0.0776,1.9308,1.2561,2.968
0.0794,1.8441,1.2143,2.8005
0.0813,1.7761,1.1844,2.6634
0.0832,1.7167,1.161,2.5386
0.0851,1.6544,1.1371,2.4071
0.0871,1.5822,1.1067,2.262
0.0892,1.4995,1.0673,2.1069
0.0913,1.4109,1.0211,1.9497
0.0934,1.325,0.9744,1.8017
0.0956,1.2528,0.9366,1.6759
0.0978,1.2035,0.916,1.5814
0.1001,1.1807,0.9147,1.5241
0.1025,1.1812,0.9286,1.5024
0.1049,1.1969,0.9545,1.501
0.1073,1.2176,0.9897,1.4978
0.1098,1.2337,1.0271,1.4818
0.1124,1.242,1.0581,1.4579
0.115,1.2463,1.0791,1.4394
0.1177,1.2517,1.0911,1.436
0.1205,1.259,1.0979,1.4438
0.1233,1.2638,1.0991,1.4531
0.1262,1.2604,1.0914,1.4556
0.1291,1.2477,1.0765,1.4462
0.1322,1.2308,1.0613,1.4274
0.1352,1.218,1.0527,1.4093
0.1384,1.2162,1.0549,1.4021
0.1417,1.2271,1.0685,1.4092
0.145,1.2471,1.092,1.4243
0.1484,1.2692,1.1219,1.4357
0.1518,1.2878,1.1545,1.4364
0.1554,1.3042,1.1857,1.4346
0.159,1.3237,1.2104,1.4476
0.1628,1.3469,1.2275,1.4779
0.1666,1.3682,1.242,1.5073
0.1705,1.3818,1.2541,1.5225
0.1745,1.3867,1.2588,1.5276
0.1785,1.3846,1.254,1.5287
0.1827,1.3758,1.2411,1.525
0.187,1.3594,1.2225,1.5117
0.1914,1.3358,1.2012,1.4855
0.1959,1.3093,1.1811,1.4514
0.2004,1.2881,1.1663,1.4226
0.2051,1.2804,1.162,1.4109
0.2099,1.2899,1.173,1.4183
0.2149,1.3125,1.1972,1.439
0.2199,1.3394,1.2251,1.4643
0.225,1.3608,1.2481,1.4836
0.2303,1.371,1.2618,1.4896
0.2357,1.3705,1.2651,1.4846
0.2412,1.3642,1.2613,1.4756
0.2469,1.3581,1.2584,1.4657
0.2526,1.3569,1.2614,1.4595
0.2585,1.3642,1.2688,1.4668
0.2646,1.383,1.2812,1.4928
0.2708,1.4152,1.3054,1.5342
0.2771,1.4615,1.3473,1.5855
0.2836,1.5201,1.4074,1.6419
0.2903,1.5863,1.4808,1.6993
0.2971,1.6534,1.5566,1.7561
0.304,1.7138,1.6195,1.8136
0.3111,1.7607,1.6569,1.8709
0.3184,1.7886,1.6675,1.9185
0.3259,1.7955,1.6583,1.9441
0.3335,1.784,1.638,1.9431
0.3413,1.761,1.6138,1.9217
0.3493,1.7356,1.59,1.8945
0.3575,1.7154,1.5706,1.8735
0.3658,1.7041,1.5603,1.8612
0.3744,1.7019,1.562,1.8543
0.3832,1.7066,1.5742,1.8502
0.3921,1.7169,1.5917,1.852
0.4013,1.7341,1.6099,1.868
0.4107,1.7604,1.6301,1.9011
0.4203,1.7943,1.6584,1.9415
0.4302,1.8282,1.6939,1.9731
0.4402,1.8508,1.7245,1.9864
0.4506,1.8544,1.7361,1.9808
0.4611,1.8398,1.727,1.9599
0.4719,1.817,1.7104,1.9301
0.4829,1.7998,1.7005,1.905
0.4942,1.7992,1.7033,1.9004
0.5058,1.8168,1.7187,1.9204
0.5177,1.8446,1.7424,1.9527
0.5298,1.8692,1.7662,1.9782
0.5422,1.8799,1.7795,1.9859
0.5549,1.8743,1.7733,1.9811
0.5679,1.859,1.7514,1.9732
0.5812,1.8442,1.7319,1.9637
0.5948,1.8386,1.7293,1.9547
0.6087,1.8459,1.7436,1.9542
0.6229,1.8652,1.7661,1.9699
0.6375,1.893,1.7914,2.0003
0.6525,1.9248,1.8196,2.0361
0.6677,1.9551,1.849,2.0674
0.6834,1.977,1.8719,2.088
0.6994,1.986,1.88,2.098
0.7157,1.9854,1.8749,2.1025
0.7325,1.9848,1.8692,2.1075
0.7496,1.9932,1.8758,2.1179
0.7672,2.0123,1.8971,2.1345
0.7851,2.0367,1.9246,2.1552
0.8035,2.0603,1.9475,2.1797
0.8223,2.0833,1.9636,2.2103
0.8416,2.1115,1.9809,2.2507
0.8613,2.1498,2.0069,2.3028
0.8815,2.1962,2.0421,2.3618
0.9021,2.2414,2.0804,2.4148
0.9232,2.273,2.1102,2.4483
0.9448,2.2816,2.1202,2.4553
0.9669,2.266,2.1081,2.4359
0.9896,2.2354,2.0828,2.3993
1.0128,2.2046,2.0574,2.3624
1.0365,2.1861,2.0437,2.3384
1.0607,2.1839,2.0475,2.3293
1.0856,2.1935,2.0651,2.3299
1.111,2.2079,2.085,2.338
1.137,2.2235,2.0981,2.3565
1.1636,2.242,2.1055,2.3874
1.1908,2.266,2.1137,2.4293
1.2187,2.2932,2.1222,2.478
1.2473,2.3162,2.1214,2.529
1.2765,2.3274,2.1037,2.5749
1.3063,2.325,2.0745,2.6058
1.3369,2.3131,2.0424,2.6198
1.3682,2.2968,2.0089,2.6259
1.4003,2.2778,1.9705,2.633
1.433,2.2552,1.9248,2.6424
1.4666,2.2284,1.8724,2.652
1.5009,2.1983,1.8172,2.6594
1.5361,2.1662,1.763,2.6617
1.572,2.1311,1.7113,2.6538
1.6088,2.0905,1.6624,2.6289
1.6465,2.0445,1.6178,2.5836
1.685,1.9973,1.5813,2.5228
1.7245,1.9563,1.5561,2.4593
1.7649,1.9275,1.5418,2.4097
1.8062,1.9122,1.5338,2.3841
1.8485,1.9061,1.5272,2.3791
1.8917,1.9018,1.5186,2.3817
1.936,1.8934,1.5063,2.3799
1.9813,1.8789,1.49,2.3695
2.0277,1.8601,1.472,2.3505
2.0752,1.8387,1.4553,2.3231
2.1238,1.8149,1.4393,2.2884
2.1735,1.7862,1.4195,2.2476
2.2244,1.7505,1.3924,2.2006
2.2765,1.709,1.3584,2.1501
2.3298,1.6664,1.3212,2.1018
2.3843,1.6272,1.2849,2.0608
2.4401,1.5923,1.2504,2.0278
2.4973,1.5585,1.2156,1.9981
2.5557,1.5222,1.1788,1.9655
2.6155,1.4829,1.1405,1.9281
2.6768,1.4438,1.1032,1.8895
2.7395,1.4088,1.0697,1.8553
2.8036,1.3799,1.0408,1.8295
2.8692,1.3565,1.0163,1.8107
2.9364,1.3368,0.9972,1.7922
3.0051,1.3193,0.9847,1.7674
3.0755,1.3028,0.9786,1.7343
3.1475,1.2856,0.9754,1.6945
3.2212,1.2658,0.9709,1.6503
3.2966,1.2427,0.963,1.6035
3.3738,1.2183,0.9536,1.5566
3.4528,1.1965,0.9458,1.5137
3.5336,1.1798,0.9413,1.4787
3.6163,1.1685,0.939,1.454
3.701,1.161,0.9363,1.4395
3.7876,1.1555,0.932,1.4324
3.8763,1.1511,0.9264,1.4303
3.967,1.1478,0.9199,1.4321
4.0599,1.1456,0.9141,1.4358
4.155,1.1444,0.9107,1.438
4.2522,1.1433,0.9102,1.4362
4.3518,1.1416,0.9102,1.4317
4.4537,1.1385,0.9081,1.4272
4.5579,1.1337,0.9031,1.4232
4.6647,1.1275,0.8961,1.4187
4.7739,1.1206,0.8889,1.4128
4.8856,1.1139,0.8832,1.4049
5.0,1.1083,0.8808,1.3946
